# Temperature    Q(T)
# [K]
  10.0         1.668157
  30.0        13.670497
  50.0        38.887741
  70.0        80.138372
  90.0       139.865860
 110.0       220.229790
 130.0       323.187010
 150.0       450.541110
 170.0       603.976060
 190.0       785.082070
 210.0       995.378650
 230.0      1236.336900
 250.0      1509.402000
 270.0      1816.014800
 290.0      2157.633000
 310.0      2535.749500
 330.0      2951.909300
 350.0      3407.722800
 370.0      3904.876400
 390.0      4445.140900
 410.0      5030.377000
 430.0      5662.538900
 450.0      6343.675500
 470.0      7075.931300
 490.0      7861.544900
 510.0      8702.847700
 530.0      9602.260600
 550.0     10562.292000
 570.0     11585.533000
 590.0     12674.655000
 610.0     13832.408000
 630.0     15061.610000
 650.0     16365.154000
 670.0     17745.992000
 690.0     19207.144000
 710.0     20751.684000
 730.0     22382.744000
 750.0     24103.506000
 770.0     25917.203000
 790.0     27827.112000
 811.0     29836.555000
 831.0     31948.893000
 851.0     34167.528000
 871.0     36495.894000
 891.0     38937.463000
 911.0     41495.734000
 931.0     44174.237000
 951.0     46976.531000
 971.0     49906.198000
 991.0     52966.844000
1011.0     56162.098000
1031.0     59495.609000
1051.0     62971.044000
1071.0     66592.089000
1091.0     70362.444000
1111.0     74285.825000
1131.0     78365.961000
1151.0     82606.593000
1171.0     87011.474000
1191.0     91584.365000
1211.0     96329.038000
1231.0    101249.270000
1251.0    106348.850000
1271.0    111631.570000
1291.0    117101.230000
1311.0    122761.630000
1331.0    128616.570000
1351.0    134669.860000
1371.0    140925.320000
1391.0    147386.760000
1411.0    154057.990000
1431.0    160942.820000
1451.0    168045.080000
1471.0    175368.570000
1491.0    182917.110000
1511.0    190694.510000
1531.0    198704.580000
1551.0    206951.120000
1571.0    215437.940000
1591.0    224168.850000
1612.0    233147.630000
1632.0    242378.090000
1652.0    251864.000000
1672.0    261609.170000
1692.0    271617.360000
1712.0    281892.360000
1732.0    292437.930000
1752.0    303257.840000
1772.0    314355.850000
1792.0    325735.710000
1812.0    337401.170000
1832.0    349355.970000
1852.0    361603.850000
1872.0    374148.530000
1892.0    386993.740000
1912.0    400143.190000
1932.0    413600.580000
1952.0    427369.630000
1972.0    441454.030000
1992.0    455857.450000
2012.0    470583.590000
2032.0    485636.120000
2052.0    501018.690000
2072.0    516734.970000
2092.0    532788.610000
2112.0    549183.250000
2132.0    565922.520000
2152.0    583010.060000
2172.0    600449.470000
2192.0    618244.380000
2212.0    636398.390000
2232.0    654915.090000
2252.0    673798.070000
2272.0    693050.920000
2292.0    712677.200000
2312.0    732680.480000
2332.0    753064.320000
2352.0    773832.270000
2372.0    794987.860000
2392.0    816534.640000
2413.0    838476.120000
2433.0    860815.830000
2453.0    883557.280000
2473.0    906703.960000
2493.0    930259.370000
2513.0    954227.000000
2533.0    978610.330000
2553.0   1003412.800000
2573.0   1028638.000000
2593.0   1054289.200000
2613.0   1080369.900000
2633.0   1106883.600000
2653.0   1133833.800000
2673.0   1161223.700000
2693.0   1189056.900000
2713.0   1217336.700000
2733.0   1246066.600000
2753.0   1275250.000000
2773.0   1304890.200000
2793.0   1334990.600000
2813.0   1365554.500000
2833.0   1396585.500000
2853.0   1428086.700000
2873.0   1460061.500000
2893.0   1492513.300000
2913.0   1525445.500000
2933.0   1558861.300000
2953.0   1592764.000000
2973.0   1627157.000000
2993.0   1662043.600000
3013.0   1697427.000000
3033.0   1733310.500000
3053.0   1769697.500000
3073.0   1806591.200000
3093.0   1843994.800000
3113.0   1881911.600000
3133.0   1920344.900000
3153.0   1959297.800000
3173.0   1998773.700000
3193.0   2038775.700000
3214.0   2079307.100000
3234.0   2120371.100000
3254.0   2161970.800000
3274.0   2204109.500000
3294.0   2246790.400000
3314.0   2290016.500000
3334.0   2333791.200000
3354.0   2378117.500000
3374.0   2422998.600000
3394.0   2468437.700000
3414.0   2514437.900000
3434.0   2561002.300000
3454.0   2608134.000000
3474.0   2655836.200000
3494.0   2704112.000000
3514.0   2752964.400000
3534.0   2802396.600000
3554.0   2852411.600000
3574.0   2903012.500000
3594.0   2954202.400000
3614.0   3005984.300000
3634.0   3058361.300000
3654.0   3111336.400000
3674.0   3164912.700000
3694.0   3219093.100000
3714.0   3273880.700000
3734.0   3329278.600000
3754.0   3385289.600000
3774.0   3441916.800000
3794.0   3499163.200000
3814.0   3557031.700000
3834.0   3615525.400000
3854.0   3674647.100000
3874.0   3734399.800000
3894.0   3794786.500000
3914.0   3855810.100000
3934.0   3917473.500000
3954.0   3979779.500000
3974.0   4042731.300000
3994.0   4106331.500000
4015.0   4170583.100000
4035.0   4235489.100000
4055.0   4301052.200000
4075.0   4367275.300000
4095.0   4434161.200000
4115.0   4501712.900000
4135.0   4569933.100000
4155.0   4638824.600000
4175.0   4708390.400000
4195.0   4778633.100000
4215.0   4849555.600000
4235.0   4921160.600000
4255.0   4993451.000000
4275.0   5066429.500000
4295.0   5140098.800000
4315.0   5214461.800000
4335.0   5289521.100000
4355.0   5365279.500000
4375.0   5441739.700000
4395.0   5518904.400000
4415.0   5596776.300000
4435.0   5675358.100000
4455.0   5754652.400000
4475.0   5834662.100000
4495.0   5915389.600000
4515.0   5996837.700000
4535.0   6079009.000000
4555.0   6161906.100000
4575.0   6245531.700000
4595.0   6329888.400000
4615.0   6414978.700000
4635.0   6500805.300000
4655.0   6587370.700000
4675.0   6674677.500000
4695.0   6762728.300000
4715.0   6851525.600000
4735.0   6941072.000000
4755.0   7031369.900000
4775.0   7122422.000000
4795.0   7214230.600000
4816.0   7306798.400000
4836.0   7400127.800000
4856.0   7494221.300000
4876.0   7589081.200000
4896.0   7684710.200000
4916.0   7781110.700000
4936.0   7878285.000000
4956.0   7976235.600000
4976.0   8074964.900000
4996.0   8174475.400000
5016.0   8274769.300000
5036.0   8375849.100000
5056.0   8477717.200000
5076.0   8580375.900000
5096.0   8683827.600000
5116.0   8788074.600000
5136.0   8893119.200000
5156.0   8998963.800000
5176.0   9105610.600000
5196.0   9213061.900000
5216.0   9321320.100000
5236.0   9430387.400000
5256.0   9540266.000000
5276.0   9650958.200000
5296.0   9762466.300000
5316.0   9874792.500000
5336.0   9987938.900000
5356.0  10101908.000000
5376.0  10216701.000000
5396.0  10332322.000000
5416.0  10448772.000000
5436.0  10566052.000000
5456.0  10684166.000000
5476.0  10803116.000000
5496.0  10922903.000000
5516.0  11043530.000000
5536.0  11164999.000000
5556.0  11287312.000000
5576.0  11410470.000000
5596.0  11534477.000000
5617.0  11659334.000000
5637.0  11785043.000000
5657.0  11911607.000000
5677.0  12039026.000000
5697.0  12167304.000000
5717.0  12296442.000000
5737.0  12426443.000000
5757.0  12557307.000000
5777.0  12689038.000000
5797.0  12821637.000000
5817.0  12955106.000000
5837.0  13089447.000000
5857.0  13224662.000000
5877.0  13360753.000000
5897.0  13497722.000000
5917.0  13635571.000000
5937.0  13774300.000000
5957.0  13913914.000000
5977.0  14054413.000000
5997.0  14195798.000000
6017.0  14338073.000000
6037.0  14481238.000000
6057.0  14625296.000000
6077.0  14770249.000000
6097.0  14916097.000000
6117.0  15062844.000000
6137.0  15210490.000000
6157.0  15359037.000000
6177.0  15508488.000000
6197.0  15658844.000000
6217.0  15810106.000000
6237.0  15962277.000000
6257.0  16115358.000000
6277.0  16269350.000000
6297.0  16424256.000000
6317.0  16580077.000000
6337.0  16736814.000000
6357.0  16894470.000000
6377.0  17053046.000000
6397.0  17212544.000000
6418.0  17372965.000000
6438.0  17534310.000000
6458.0  17696582.000000
6478.0  17859782.000000
6498.0  18023911.000000
6518.0  18188972.000000
6538.0  18354965.000000
6558.0  18521892.000000
6578.0  18689755.000000
6598.0  18858555.000000
6618.0  19028294.000000
6638.0  19198972.000000
6658.0  19370593.000000
6678.0  19543156.000000
6698.0  19716664.000000
6718.0  19891118.000000
6738.0  20066520.000000
6758.0  20242870.000000
6778.0  20420170.000000
6798.0  20598422.000000
6818.0  20777627.000000
6838.0  20957787.000000
6858.0  21138902.000000
6878.0  21320974.000000
6898.0  21504005.000000
6918.0  21687995.000000
6938.0  21872947.000000
6958.0  22058861.000000
6978.0  22245739.000000
6998.0  22433582.000000
7018.0  22622391.000000
7038.0  22812167.000000
7058.0  23002912.000000
7078.0  23194628.000000
7098.0  23387315.000000
7118.0  23580974.000000
7138.0  23775607.000000
7158.0  23971215.000000
7178.0  24167799.000000
7198.0  24365360.000000
7219.0  24563900.000000
7239.0  24763419.000000
7259.0  24963920.000000
7279.0  25165402.000000
7299.0  25367867.000000
7319.0  25571317.000000
7339.0  25775752.000000
7359.0  25981173.000000
7379.0  26187582.000000
7399.0  26394980.000000
7419.0  26603367.000000
7439.0  26812745.000000
7459.0  27023115.000000
7479.0  27234477.000000
7499.0  27446834.000000
7519.0  27660185.000000
7539.0  27874533.000000
7559.0  28089877.000000
7579.0  28306219.000000
7599.0  28523560.000000
7619.0  28741901.000000
7639.0  28961243.000000
7659.0  29181586.000000
7679.0  29402933.000000
7699.0  29625283.000000
7719.0  29848637.000000
7739.0  30072998.000000
7759.0  30298364.000000
7779.0  30524738.000000
7799.0  30752120.000000
7819.0  30980511.000000
7839.0  31209913.000000
7859.0  31440325.000000
7879.0  31671748.000000
7899.0  31904184.000000
7919.0  32137634.000000
7939.0  32372098.000000
7959.0  32607577.000000
7979.0  32844071.000000